    E(eV)    dE(eV)  Phi(deg)    dPhi      Theta    dTheta   Log10(FDV)
				(deg)      (deg)    (deg)     FDV in s^3/km^3/cm^3
  13.6439    4.5626  112.8750   22.5000  -11.2500   22.5000  -10.1696
  13.6439    4.5626   90.3750   22.5000  -11.2500   22.5000  -10.2840
  13.6439    4.5626  112.8750   22.5000  -33.7500   22.5000  -10.1896
  13.6439    4.5626   90.3750   22.5000  -33.7500   22.5000  -10.2780
  13.6439    4.5626  135.3750   22.5000  -11.2500   22.5000  -10.0942
  13.6439    4.5626  157.8750   22.5000  -11.2500   22.5000  -10.0353
  13.6439    4.5626  135.3750   22.5000  -33.7500   22.5000  -10.1203
  13.6439    4.5626  157.8750   22.5000  -33.7500   22.5000  -10.0645
  13.6439    4.5626  101.6250   45.0000  -56.2500   22.5000  -10.2476
  13.6439    4.5626  146.6250   45.0000  -56.2500   22.5000  -10.1668
  13.6439    4.5626  124.1250   90.0000  -78.7500   22.5000  -10.2491
  13.6439    4.5626  112.8750   22.5000   11.2500   22.5000  -10.1251
  13.6439    4.5626   90.3750   22.5000   11.2500   22.5000  -10.2229
  13.6439    4.5626  112.8750   22.5000   33.7500   22.5000  -10.1726
  13.6439    4.5626   90.3750   22.5000   33.7500   22.5000  -10.2627
  13.6439    4.5626  135.3750   22.5000   11.2500   22.5000  -10.0765
  13.6439    4.5626  157.8750   22.5000   11.2500   22.5000  -10.0314
  13.6439    4.5626  135.3750   22.5000   33.7500   22.5000  -10.1152
  13.6439    4.5626  157.8750   22.5000   33.7500   22.5000  -10.0477
  13.6439    4.5626  101.6250   45.0000   56.2500   22.5000  -10.2482
  13.6439    4.5626  146.6250   45.0000   56.2500   22.5000  -10.1383
  13.6439    4.5626  124.1250   90.0000   78.7500   22.5000  -10.2761
  13.6439    4.5626  225.3750   22.5000  -11.2500   22.5000  -10.1064
  13.6439    4.5626  247.8750   22.5000  -11.2500   22.5000  -10.1890
  13.6439    4.5626  225.3750   22.5000  -33.7500   22.5000  -10.1238
  13.6439    4.5626  247.8750   22.5000  -33.7500   22.5000  -10.1896
  13.6439    4.5626  202.8750   22.5000  -11.2500   22.5000  -10.0594
  13.6439    4.5626  180.3750   22.5000  -11.2500   22.5000  -10.0214
  13.6439    4.5626  202.8750   22.5000  -33.7500   22.5000  -10.0829
  13.6439    4.5626  180.3750   22.5000  -33.7500   22.5000  -10.0468
  13.6439    4.5626  236.6250   45.0000  -56.2500   22.5000  -10.2006
  13.6439    4.5626  191.6250   45.0000  -56.2500   22.5000  -10.1468
  13.6439    4.5626  214.1250   90.0000  -78.7500   22.5000  -10.2399
  13.6439    4.5626  225.3750   22.5000   11.2500   22.5000  -10.1093
  13.6439    4.5626  247.8750   22.5000   11.2500   22.5000  -10.1999
  13.6439    4.5626  225.3750   22.5000   33.7500   22.5000  -10.1306
  13.6439    4.5626  247.8750   22.5000   33.7500   22.5000  -10.2061
  13.6439    4.5626  202.8750   22.5000   11.2500   22.5000  -10.0622
  13.6439    4.5626  180.3750   22.5000   11.2500   22.5000  -10.0219
  13.6439    4.5626  202.8750   22.5000   33.7500   22.5000  -10.0732
  13.6439    4.5626  180.3750   22.5000   33.7500   22.5000  -10.0389
  13.6439    4.5626  236.6250   45.0000   56.2500   22.5000  -10.1912
  13.6439    4.5626  191.6250   45.0000   56.2500   22.5000  -10.1182
  13.6439    4.5626  214.1250   90.0000   78.7500   22.5000  -10.2561
  13.6439    4.5626   45.3750   22.5000  -11.2500   22.5000  -10.3954
  13.6439    4.5626   67.8750   22.5000  -11.2500   22.5000  -10.3567
  13.6439    4.5626   45.3750   22.5000  -33.7500   22.5000  -10.3512
  13.6439    4.5626   67.8750   22.5000  -33.7500   22.5000  -10.3335
  13.6439    4.5626   22.8750   22.5000  -11.2500   22.5000  -10.4350
  13.6439    4.5626    0.3750   22.5000  -11.2500   22.5000  -10.4584
  13.6439    4.5626   22.8750   22.5000  -33.7500   22.5000  -10.3815
  13.6439    4.5626    0.3750   22.5000  -33.7500   22.5000  -10.3935
  13.6439    4.5626   56.6250   45.0000  -56.2500   22.5000  -10.2902
  13.6439    4.5626   11.6250   45.0000  -56.2500   22.5000  -10.2876
  13.6439    4.5626   34.1250   90.0000  -78.7500   22.5000  -10.2240
  13.6439    4.5626   45.3750   22.5000   11.2500   22.5000  -10.4058
  13.6439    4.5626   67.8750   22.5000   11.2500   22.5000  -10.3457
  13.6439    4.5626   45.3750   22.5000   33.7500   22.5000  -10.3780
  13.6439    4.5626   67.8750   22.5000   33.7500   22.5000  -10.3534
  13.6439    4.5626   22.8750   22.5000   11.2500   22.5000  -10.4384
  13.6439    4.5626    0.3750   22.5000   11.2500   22.5000  -10.4737
  13.6439    4.5626   22.8750   22.5000   33.7500   22.5000  -10.4104
  13.6439    4.5626    0.3750   22.5000   33.7500   22.5000  -10.4267
  13.6439    4.5626   56.6250   45.0000   56.2500   22.5000  -10.3287
  13.6439    4.5626   11.6250   45.0000   56.2500   22.5000  -10.3511
  13.6439    4.5626   34.1250   90.0000   78.7500   22.5000  -10.2851
  13.6439    4.5626  292.8750   22.5000  -11.2500   22.5000  -10.3221
  13.6439    4.5626  270.3750   22.5000  -11.2500   22.5000  -10.2680
  13.6439    4.5626  292.8750   22.5000  -33.7500   22.5000  -10.2961
  13.6439    4.5626  270.3750   22.5000  -33.7500   22.5000  -10.2525
  13.6439    4.5626  315.3750   22.5000  -11.2500   22.5000  -10.3889
  13.6439    4.5626  337.8750   22.5000  -11.2500   22.5000  -10.4349
  13.6439    4.5626  315.3750   22.5000  -33.7500   22.5000  -10.3415
  13.6439    4.5626  337.8750   22.5000  -33.7500   22.5000  -10.3800
  13.6439    4.5626  281.6250   45.0000  -56.2500   22.5000  -10.2427
  13.6439    4.5626  326.6250   45.0000  -56.2500   22.5000  -10.2672
  13.6439    4.5626  304.1250   90.0000  -78.7500   22.5000  -10.2239
  13.6439    4.5626  292.8750   22.5000   11.2500   22.5000  -10.3397
  13.6439    4.5626  270.3750   22.5000   11.2500   22.5000  -10.2874
  13.6439    4.5626  292.8750   22.5000   33.7500   22.5000  -10.3246
  13.6439    4.5626  270.3750   22.5000   33.7500   22.5000  -10.2816
  13.6439    4.5626  315.3750   22.5000   11.2500   22.5000  -10.4030
  13.6439    4.5626  337.8750   22.5000   11.2500   22.5000  -10.4534
  13.6439    4.5626  315.3750   22.5000   33.7500   22.5000  -10.3795
  13.6439    4.5626  337.8750   22.5000   33.7500   22.5000  -10.4169
  13.6439    4.5626  281.6250   45.0000   56.2500   22.5000  -10.2830
  13.6439    4.5626  326.6250   45.0000   56.2500   22.5000  -10.3314
  13.6439    4.5626  304.1250   90.0000   78.7500   22.5000  -10.2684
  18.2066    5.4752  113.6250   22.5000  -11.2500   22.5000  -10.3226
  18.2066    5.4752   91.1250   22.5000  -11.2500   22.5000  -10.4598
  18.2066    5.4752  113.6250   22.5000  -33.7500   22.5000  -10.3413
  18.2066    5.4752   91.1250   22.5000  -33.7500   22.5000  -10.4540
  18.2066    5.4752  136.1250   22.5000  -11.2500   22.5000  -10.2264
  18.2066    5.4752  158.6250   22.5000  -11.2500   22.5000  -10.1573
  18.2066    5.4752  136.1250   22.5000  -33.7500   22.5000  -10.2543
  18.2066    5.4752  158.6250   22.5000  -33.7500   22.5000  -10.1933
  18.2066    5.4752  102.3750   45.0000  -56.2500   22.5000  -10.4317
  18.2066    5.4752  147.3750   45.0000  -56.2500   22.5000  -10.3175
  18.2066    5.4752  124.8750   90.0000  -78.7500   22.5000  -10.4721
  18.2066    5.4752  113.6250   22.5000   11.2500   22.5000  -10.3128
  18.2066    5.4752   91.1250   22.5000   11.2500   22.5000  -10.4269
  18.2066    5.4752  113.6250   22.5000   33.7500   22.5000  -10.3411
  18.2066    5.4752   91.1250   22.5000   33.7500   22.5000  -10.4546
  18.2066    5.4752  136.1250   22.5000   11.2500   22.5000  -10.2300
  18.2066    5.4752  158.6250   22.5000   11.2500   22.5000  -10.1738
  18.2066    5.4752  136.1250   22.5000   33.7500   22.5000  -10.2562
  18.2066    5.4752  158.6250   22.5000   33.7500   22.5000  -10.2017
  18.2066    5.4752  102.3750   45.0000   56.2500   22.5000  -10.4316
  18.2066    5.4752  147.3750   45.0000   56.2500   22.5000  -10.2954
  18.2066    5.4752  124.8750   90.0000   78.7500   22.5000  -10.4600
  18.2066    5.4752  226.1250   22.5000  -11.2500   22.5000  -10.2585
  18.2066    5.4752  248.6250   22.5000  -11.2500   22.5000  -10.3597
  18.2066    5.4752  226.1250   22.5000  -33.7500   22.5000  -10.2719
  18.2066    5.4752  248.6250   22.5000  -33.7500   22.5000  -10.3692
  18.2066    5.4752  203.6250   22.5000  -11.2500   22.5000  -10.1811
  18.2066    5.4752  181.1250   22.5000  -11.2500   22.5000  -10.1364
  18.2066    5.4752  203.6250   22.5000  -33.7500   22.5000  -10.2149
  18.2066    5.4752  181.1250   22.5000  -33.7500   22.5000  -10.1772
  18.2066    5.4752  237.3750   45.0000  -56.2500   22.5000  -10.3631
  18.2066    5.4752  192.3750   45.0000  -56.2500   22.5000  -10.2897
  18.2066    5.4752  214.8750   90.0000  -78.7500   22.5000  -10.4504
  18.2066    5.4752  226.1250   22.5000   11.2500   22.5000  -10.2678
  18.2066    5.4752  248.6250   22.5000   11.2500   22.5000  -10.3742
  18.2066    5.4752  226.1250   22.5000   33.7500   22.5000  -10.2710
  18.2066    5.4752  248.6250   22.5000   33.7500   22.5000  -10.3794
  18.2066    5.4752  203.6250   22.5000   11.2500   22.5000  -10.1814
  18.2066    5.4752  181.1250   22.5000   11.2500   22.5000  -10.1498
  18.2066    5.4752  203.6250   22.5000   33.7500   22.5000  -10.2064
  18.2066    5.4752  181.1250   22.5000   33.7500   22.5000  -10.1759
  18.2066    5.4752  237.3750   45.0000   56.2500   22.5000  -10.3649
  18.2066    5.4752  192.3750   45.0000   56.2500   22.5000  -10.2680
  18.2066    5.4752  214.8750   90.0000   78.7500   22.5000  -10.4234
  18.2066    5.4752   46.1250   22.5000  -11.2500   22.5000  -10.6473
  18.2066    5.4752   68.6250   22.5000  -11.2500   22.5000  -10.5705
  18.2066    5.4752   46.1250   22.5000  -33.7500   22.5000  -10.5881
  18.2066    5.4752   68.6250   22.5000  -33.7500   22.5000  -10.5492
  18.2066    5.4752   23.6250   22.5000  -11.2500   22.5000  -10.6971
  18.2066    5.4752    1.1250   22.5000  -11.2500   22.5000  -10.7337
  18.2066    5.4752   23.6250   22.5000  -33.7500   22.5000  -10.6306
  18.2066    5.4752    1.1250   22.5000  -33.7500   22.5000  -10.6550
  18.2066    5.4752   57.3750   45.0000  -56.2500   22.5000  -10.5152
  18.2066    5.4752   12.3750   45.0000  -56.2500   22.5000  -10.5317
  18.2066    5.4752   34.8750   90.0000  -78.7500   22.5000  -10.4317
  18.2066    5.4752   46.1250   22.5000   11.2500   22.5000  -10.6605
  18.2066    5.4752   68.6250   22.5000   11.2500   22.5000  -10.5775
  18.2066    5.4752   46.1250   22.5000   33.7500   22.5000  -10.6271
  18.2066    5.4752   68.6250   22.5000   33.7500   22.5000  -10.5660
  18.2066    5.4752   23.6250   22.5000   11.2500   22.5000  -10.7195
  18.2066    5.4752    1.1250   22.5000   11.2500   22.5000  -10.7505
  18.2066    5.4752   23.6250   22.5000   33.7500   22.5000  -10.6773
  18.2066    5.4752    1.1250   22.5000   33.7500   22.5000  -10.6942
  18.2066    5.4752   57.3750   45.0000   56.2500   22.5000  -10.5605
  18.2066    5.4752   12.3750   45.0000   56.2500   22.5000  -10.5959
  18.2066    5.4752   34.8750   90.0000   78.7500   22.5000  -10.4992
  18.2066    5.4752  293.6250   22.5000  -11.2500   22.5000  -10.5794
  18.2066    5.4752  271.1250   22.5000  -11.2500   22.5000  -10.4809
  18.2066    5.4752  293.6250   22.5000  -33.7500   22.5000  -10.5248
  18.2066    5.4752  271.1250   22.5000  -33.7500   22.5000  -10.4642
  18.2066    5.4752  316.1250   22.5000  -11.2500   22.5000  -10.6578
  18.2066    5.4752  338.6250   22.5000  -11.2500   22.5000  -10.7134
  18.2066    5.4752  316.1250   22.5000  -33.7500   22.5000  -10.5990
  18.2066    5.4752  338.6250   22.5000  -33.7500   22.5000  -10.6365
  18.2066    5.4752  282.3750   45.0000  -56.2500   22.5000  -10.4532
  18.2066    5.4752  327.3750   45.0000  -56.2500   22.5000  -10.5041
  18.2066    5.4752  304.8750   90.0000  -78.7500   22.5000  -10.4155
  18.2066    5.4752  293.6250   22.5000   11.2500   22.5000  -10.5891
  18.2066    5.4752  271.1250   22.5000   11.2500   22.5000  -10.4940
  18.2066    5.4752  293.6250   22.5000   33.7500   22.5000  -10.5647
  18.2066    5.4752  271.1250   22.5000   33.7500   22.5000  -10.4863
  18.2066    5.4752  316.1250   22.5000   11.2500   22.5000  -10.6744
  18.2066    5.4752  338.6250   22.5000   11.2500   22.5000  -10.7471
  18.2066    5.4752  316.1250   22.5000   33.7500   22.5000  -10.6484
  18.2066    5.4752  338.6250   22.5000   33.7500   22.5000  -10.6942
  18.2066    5.4752  282.3750   45.0000   56.2500   22.5000  -10.4872
  18.2066    5.4752  327.3750   45.0000   56.2500   22.5000  -10.5644
  18.2066    5.4752  304.8750   90.0000   78.7500   22.5000  -10.4665
  24.5942    7.5905  114.3750   22.5000  -11.2500   22.5000  -10.5566
  24.5942    7.5905   91.8750   22.5000  -11.2500   22.5000  -10.7041
  24.5942    7.5905  114.3750   22.5000  -33.7500   22.5000  -10.5702
  24.5942    7.5905   91.8750   22.5000  -33.7500   22.5000  -10.7133
  24.5942    7.5905  136.8750   22.5000  -11.2500   22.5000  -10.4518
  24.5942    7.5905  159.3750   22.5000  -11.2500   22.5000  -10.3646
  24.5942    7.5905  136.8750   22.5000  -33.7500   22.5000  -10.4797
  24.5942    7.5905  159.3750   22.5000  -33.7500   22.5000  -10.4055
  24.5942    7.5905  103.1250   45.0000  -56.2500   22.5000  -10.6827
  24.5942    7.5905  148.1250   45.0000  -56.2500   22.5000  -10.5430
  24.5942    7.5905  125.6250   90.0000  -78.7500   22.5000  -10.7378
  24.5942    7.5905  114.3750   22.5000   11.2500   22.5000  -10.5689
  24.5942    7.5905   91.8750   22.5000   11.2500   22.5000  -10.7014
  24.5942    7.5905  114.3750   22.5000   33.7500   22.5000  -10.5897
  24.5942    7.5905   91.8750   22.5000   33.7500   22.5000  -10.7325
  24.5942    7.5905  136.8750   22.5000   11.2500   22.5000  -10.4642
  24.5942    7.5905  159.3750   22.5000   11.2500   22.5000  -10.3916
  24.5942    7.5905  136.8750   22.5000   33.7500   22.5000  -10.5015
  24.5942    7.5905  159.3750   22.5000   33.7500   22.5000  -10.4236
  24.5942    7.5905  103.1250   45.0000   56.2500   22.5000  -10.6908
  24.5942    7.5905  148.1250   45.0000   56.2500   22.5000  -10.5322
  24.5942    7.5905  125.6250   90.0000   78.7500   22.5000  -10.7211
  24.5942    7.5905  226.8750   22.5000  -11.2500   22.5000  -10.5002
  24.5942    7.5905  249.3750   22.5000  -11.2500   22.5000  -10.6364
  24.5942    7.5905  226.8750   22.5000  -33.7500   22.5000  -10.5142
  24.5942    7.5905  249.3750   22.5000  -33.7500   22.5000  -10.6405
  24.5942    7.5905  204.3750   22.5000  -11.2500   22.5000  -10.3891
  24.5942    7.5905  181.8750   22.5000  -11.2500   22.5000  -10.3383
  24.5942    7.5905  204.3750   22.5000  -33.7500   22.5000  -10.4362
  24.5942    7.5905  181.8750   22.5000  -33.7500   22.5000  -10.3868
  24.5942    7.5905  238.1250   45.0000  -56.2500   22.5000  -10.6188
  24.5942    7.5905  193.1250   45.0000  -56.2500   22.5000  -10.5184
  24.5942    7.5905  215.6250   90.0000  -78.7500   22.5000  -10.7031
  24.5942    7.5905  226.8750   22.5000   11.2500   22.5000  -10.5064
  24.5942    7.5905  249.3750   22.5000   11.2500   22.5000  -10.6413
  24.5942    7.5905  226.8750   22.5000   33.7500   22.5000  -10.5199
  24.5942    7.5905  249.3750   22.5000   33.7500   22.5000  -10.6440
  24.5942    7.5905  204.3750   22.5000   11.2500   22.5000  -10.3951
  24.5942    7.5905  181.8750   22.5000   11.2500   22.5000  -10.3567
  24.5942    7.5905  204.3750   22.5000   33.7500   22.5000  -10.4278
  24.5942    7.5905  181.8750   22.5000   33.7500   22.5000  -10.3913
  24.5942    7.5905  238.1250   45.0000   56.2500   22.5000  -10.6186
  24.5942    7.5905  193.1250   45.0000   56.2500   22.5000  -10.4985
  24.5942    7.5905  215.6250   90.0000   78.7500   22.5000  -10.6824
  24.5942    7.5905   46.8750   22.5000  -11.2500   22.5000  -10.9793
  24.5942    7.5905   69.3750   22.5000  -11.2500   22.5000  -10.8637
  24.5942    7.5905   46.8750   22.5000  -33.7500   22.5000  -10.9146
  24.5942    7.5905   69.3750   22.5000  -33.7500   22.5000  -10.8426
  24.5942    7.5905   24.3750   22.5000  -11.2500   22.5000  -11.0562
  24.5942    7.5905    1.8750   22.5000  -11.2500   22.5000  -11.0973
  24.5942    7.5905   24.3750   22.5000  -33.7500   22.5000  -10.9658
  24.5942    7.5905    1.8750   22.5000  -33.7500   22.5000  -10.9965
  24.5942    7.5905   58.1250   45.0000  -56.2500   22.5000  -10.8047
  24.5942    7.5905   13.1250   45.0000  -56.2500   22.5000  -10.8531
  24.5942    7.5905   35.6250   90.0000  -78.7500   22.5000  -10.7246
  24.5942    7.5905   46.8750   22.5000   11.2500   22.5000  -11.0034
  24.5942    7.5905   69.3750   22.5000   11.2500   22.5000  -10.8708
  24.5942    7.5905   46.8750   22.5000   33.7500   22.5000  -10.9729
  24.5942    7.5905   69.3750   22.5000   33.7500   22.5000  -10.8737
  24.5942    7.5905   24.3750   22.5000   11.2500   22.5000  -11.0744
  24.5942    7.5905    1.8750   22.5000   11.2500   22.5000  -11.1141
  24.5942    7.5905   24.3750   22.5000   33.7500   22.5000  -11.0221
  24.5942    7.5905    1.8750   22.5000   33.7500   22.5000  -11.0607
  24.5942    7.5905   58.1250   45.0000   56.2500   22.5000  -10.8600
  24.5942    7.5905   13.1250   45.0000   56.2500   22.5000  -10.9126
  24.5942    7.5905   35.6250   90.0000   78.7500   22.5000  -10.7953
  24.5942    7.5905  294.3750   22.5000  -11.2500   22.5000  -10.9058
  24.5942    7.5905  271.8750   22.5000  -11.2500   22.5000  -10.7778
  24.5942    7.5905  294.3750   22.5000  -33.7500   22.5000  -10.8465
  24.5942    7.5905  271.8750   22.5000  -33.7500   22.5000  -10.7564
  24.5942    7.5905  316.8750   22.5000  -11.2500   22.5000  -11.0077
  24.5942    7.5905  339.3750   22.5000  -11.2500   22.5000  -11.0767
  24.5942    7.5905  316.8750   22.5000  -33.7500   22.5000  -10.9337
  24.5942    7.5905  339.3750   22.5000  -33.7500   22.5000  -10.9836
  24.5942    7.5905  283.1250   45.0000  -56.2500   22.5000  -10.7462
  24.5942    7.5905  328.1250   45.0000  -56.2500   22.5000  -10.8303
  24.5942    7.5905  305.6250   90.0000  -78.7500   22.5000  -10.6969
  24.5942    7.5905  294.3750   22.5000   11.2500   22.5000  -10.9286
  24.5942    7.5905  271.8750   22.5000   11.2500   22.5000  -10.7992
  24.5942    7.5905  294.3750   22.5000   33.7500   22.5000  -10.8853
  24.5942    7.5905  271.8750   22.5000   33.7500   22.5000  -10.7886
  24.5942    7.5905  316.8750   22.5000   11.2500   22.5000  -11.0307
  24.5942    7.5905  339.3750   22.5000   11.2500   22.5000  -11.0953
  24.5942    7.5905  316.8750   22.5000   33.7500   22.5000  -10.9765
  24.5942    7.5905  339.3750   22.5000   33.7500   22.5000  -11.0374
  24.5942    7.5905  283.1250   45.0000   56.2500   22.5000  -10.7897
  24.5942    7.5905  328.1250   45.0000   56.2500   22.5000  -10.8894
  24.5942    7.5905  305.6250   90.0000   78.7500   22.5000  -10.7603
  33.3877   10.4940  115.1250   22.5000  -11.2500   22.5000  -10.8864
  33.3877   10.4940   92.6250   22.5000  -11.2500   22.5000  -11.0716
  33.3877   10.4940  115.1250   22.5000  -33.7500   22.5000  -10.9097
  33.3877   10.4940   92.6250   22.5000  -33.7500   22.5000  -11.0564
  33.3877   10.4940  137.6250   22.5000  -11.2500   22.5000  -10.7530
  33.3877   10.4940  160.1250   22.5000  -11.2500   22.5000  -10.6769
  33.3877   10.4940  137.6250   22.5000  -33.7500   22.5000  -10.7931
  33.3877   10.4940  160.1250   22.5000  -33.7500   22.5000  -10.7224
  33.3877   10.4940  103.8750   45.0000  -56.2500   22.5000  -11.0119
  33.3877   10.4940  148.8750   45.0000  -56.2500   22.5000  -10.8684
  33.3877   10.4940  126.3750   90.0000  -78.7500   22.5000  -11.0772
  33.3877   10.4940  115.1250   22.5000   11.2500   22.5000  -10.8937
  33.3877   10.4940   92.6250   22.5000   11.2500   22.5000  -11.0605
  33.3877   10.4940  115.1250   22.5000   33.7500   22.5000  -10.9348
  33.3877   10.4940   92.6250   22.5000   33.7500   22.5000  -11.0915
